"Nominal strain Torsion"	"Standard torque absolute Torsion"
"°"	"Nm"
0	2.75754
0.000255212	2.76105
0.00102197	2.76453
0.00357018	2.76948
0.00946008	2.77579
0.0181271	2.78403
0.0281368	2.79416
0.0386349	2.80662
0.0504147	2.82053
0.0639645	2.83628
0.0785519	2.85264
0.0941769	2.86997
0.110046	2.88816
0.126403	2.90708
0.142761	2.92637
0.159607	2.94578
0.176086	2.96518
0.192443	2.98472
0.208068	3.00461
0.223693	3.02463
0.239807	3.04502
0.25592	3.06516
0.27301	3.08542
0.290222	3.10569
0.3078	3.12558
0.325012	3.1456
0.341858	3.16587
0.358825	3.18577
0.375427	3.20542
0.392639	3.22471
0.408996	3.24436
0.425109	3.26413
0.441223	3.28391
0.457092	3.3032
0.473205	3.32334
0.489318	3.34311
0.50592	3.36301
0.52362	3.38279
0.541076	3.40317
0.558166	3.42392
0.575378	3.44394
0.592468	3.46396
0.609314	3.48374
0.626526	3.50388
0.643371	3.5239
0.660095	3.54392
0.676452	3.56345
0.69281	3.58323
0.708923	3.603
0.724792	3.62204
0.740905	3.64219
0.757873	3.66196
0.775207	3.68198
0.792419	3.70151
0.809509	3.72117
0.82611	3.74106
0.84259	3.76096
0.858947	3.78074
0.875061	3.80063
0.891174	3.82041
0.906799	3.83982
0.923156	3.85898
0.93927	3.87851
0.955383	3.89853
0.971862	3.91843
0.98822	3.93808
1.00531	3.9581
1.02277	3.97812
1.04071	3.99766
1.0578	4.01719
1.07465	4.03708
1.09113	4.05686
1.10699	4.07639
1.12311	4.09592
1.13898	4.11521
1.15509	4.13462
1.1712	4.15378
1.18756	4.17331
1.20416	4.19309
1.22113	4.21287
1.23822	4.23203
1.25592	4.25181
1.27362	4.27158
1.29095	4.29136
1.30768	4.31113
1.32428	4.33054
1.34064	4.35032
1.35724	4.36997
1.37335	4.3895
1.38959	4.40879
1.4057	4.42844
1.4223	4.44761
1.4389	4.46726
1.45526	4.48642
1.47174	4.50608
1.48883	4.52537
1.50604	4.5449
1.52289	4.56357
1.53973	4.58249
1.55646	4.60129
1.57257	4.62034
1.58844	4.63913
1.60455	4.65757
1.62091	4.67661
1.63727	4.69492
1.65424	4.71396
1.67084	4.7324
1.68744	4.75168
1.70465	4.77121
1.7215	4.79075
1.73895	4.81016
1.75653	4.82969
1.77447	4.84849
1.79144	4.86716
1.80731	4.88633
1.82318	4.90561
1.83929	4.92454
1.85541	4.94333
1.87176	4.96201
1.88837	4.98032
1.90533	4.99875
1.92218	5.01743
1.93878	5.03672
1.95514	5.05539
1.97259	5.07383
1.99078	5.09202
2.00787	5.1102
2.02435	5.12827
2.04047	5.14634
2.05633	5.1644
2.07245	5.18259
2.08881	5.20054
2.10443	5.21848
2.12079	5.23691
2.13776	5.25461
2.15509	5.2728
2.1723	5.29111
2.18915	5.30967
2.20599	5.32798
2.22369	5.34653
2.24139	5.36448
2.25824	5.38279
2.27435	5.40049
2.29031	5.41793
2.30618	5.43563
2.32229	5.45284
2.33889	5.47017
2.35598	5.48678
2.37295	5.50338
2.39004	5.52022
2.40725	5.53731
2.42385	5.55367
2.44106	5.57052
2.45864	5.58712
2.47634	5.60384
2.49368	5.61983
2.50991	5.6354
2.52523	5.6509
2.5411	5.66597
2.55721	5.68081
2.57333	5.69606
2.58969	5.7112
2.60665	5.72591
2.62399	5.74056
2.64071	5.75539
2.65756	5.77096
2.6744	5.7864
2.6921	5.80153
2.71005	5.81691
2.72738	5.83175
2.7441	5.84578
2.75997	5.8597
2.7756	5.87362
2.79147	5.88778
2.80758	5.90151
2.82394	5.91463
2.8403	5.92769
2.8569	5.941
2.87386	5.95424
2.89071	5.96761
2.90756	5.98086
2.92452	5.99398
2.94161	6.00704
2.95858	6.01937
2.97518	6.03188
2.99105	6.04403
3.00717	6.05611
3.02328	6.06807
3.03964	6.07973
3.05612	6.09145
3.07247	6.10329
3.08907	6.11495
3.10604	6.12642
3.12289	6.13784
3.13973	6.14913
3.1567	6.16005
3.17404	6.1711
3.191	6.18227
3.20761	6.19356
3.22347	6.20418
3.2391	6.21505
3.25521	6.22561
3.27157	6.23562
3.28817	6.24575
3.30465	6.2557
3.32101	6.26632
3.33737	6.2759
3.35397	6.28573
3.37094	6.29488
3.38803	6.3044
3.40524	6.31356
3.42184	6.32308
3.43868	6.33248
3.45565	6.34182
3.47225	6.35073
3.48861	6.35903
3.50533	6.3677
3.52218	6.37606
3.53903	6.38479
3.55599	6.39339
3.57284	6.40163
3.58969	6.40957
3.60665	6.41774
3.6235	6.42556
3.64047	6.43355
3.65707	6.44167
3.67367	6.45009
3.68978	6.45791
3.70626	6.46532
3.72262	6.47225
3.73922	6.4793
3.75582	6.48613
3.77255	6.49334
3.78915	6.50048
3.80575	6.50771
3.82272	6.51445
3.84005	6.52083
3.85751	6.52749
3.8746	6.53377
3.89071	6.54085
3.90682	6.54763
3.9233	6.55462
3.93966	6.56106
3.95553	6.5674
3.97164	6.57354
3.988	6.58013
4.0046	6.58675
4.02157	6.59313
4.03817	6.6
4.05502	6.60619
4.07247	6.61269
4.08968	6.61825
4.10677	6.62444
4.12362	6.63024
4.14034	6.63604
4.15621	6.64126
4.17257	6.6466
4.18893	6.65215
4.20529	6.65743
4.22164	6.66253
4.23861	6.66698
4.25546	6.67251
4.27242	6.67745
4.28927	6.68279
4.30612	6.68761
4.32284	6.69274
4.33968	6.69765
4.35629	6.70217
4.37216	6.70687
4.38839	6.7119
4.40499	6.71676
4.42135	6.72115
4.43746	6.72567
4.45406	6.7304
4.47128	6.73537
4.48837	6.74022
4.50558	6.74508
4.52218	6.74996
4.53939	6.75475
4.55673	6.75896
4.57443	6.7636
4.59213	6.76809
4.60897	6.77245
4.62533	6.77645
4.6423	6.78028
4.65914	6.78434
4.67574	6.78846
4.6921	6.79242
4.70883	6.79584
4.72518	6.7999
4.74154	6.80359
4.7579	6.80765
4.77487	6.81165
4.79171	6.81525
4.80856	6.81928
4.82552	6.82319
4.84213	6.82702
4.85848	6.83077
4.87521	6.83504
4.89205	6.83863
4.9089	6.84235
4.92562	6.84629
4.94222	6.84998
4.95883	6.85392
4.97494	6.85729
4.99105	6.86072
5.00729	6.86405
5.02389	6.86735
5.04049	6.87027
5.05685	6.8741
5.07296	6.87766
5.0892	6.8806
5.1058	6.88364
5.12313	6.88654
5.14034	6.88982
5.15719	6.89284
5.1744	6.89577
5.191	6.89867
5.20736	6.90195
5.22408	6.90438
5.24117	6.90688
5.25802	6.90969
5.27474	6.91247
5.29086	6.91544
5.30697	6.91864
5.32284	6.92139
5.33895	6.92417
5.35531	6.92705
5.37228	6.92972
5.38912	6.93253
5.40621	6.93573
5.42318	6.9386
5.43978	6.94133
5.4559	6.94391
5.48873	6.94864
5.50509	6.95134
5.52145	6.95377
5.53707	6.9567
5.55343	6.95936
5.57003	6.9619
5.58676	6.96428
5.60409	6.96691
5.62155	6.96996
5.63888	6.97246
5.65634	6.97504
5.67294	6.97747
5.69015	6.98009
5.72421	6.98415
5.75668	6.98873
5.78842	6.99265
5.80453	6.99523
5.82113	6.99749
5.83785	6.99981
5.87216	7.00434
5.889	7.00716
5.90585	7.0095
5.92281	7.01185
5.9399	7.01439
5.95687	7.0167
5.97396	7.01897
5.99008	7.02147
6.00594	7.02381
6.02157	7.02643
6.03793	7.02871
6.07076	7.03284
6.08761	7.03516
6.10458	7.03747
6.12191	7.03985
6.15573	7.04377
6.19027	7.04693
6.22384	7.05057
6.25582	7.0546
6.28854	7.05839
6.32186	7.06215
6.35665	7.0666
6.39095	7.07055
6.42526	7.07388
6.45883	7.07697
6.49001	7.08068
6.522	7.08365
6.55471	7.08725
6.58962	7.09116
6.6249	7.09425
6.65896	7.09723
6.69216	7.1009
6.7239	7.10423
6.75588	7.10762
6.7897	7.11154
6.82424	7.11487
6.85879	7.11827
6.8926	7.12077
6.92617	7.1232
6.95742	7.12597
6.98892	7.12914
7.02236	7.13168
7.05642	7.13505
7.09121	7.13801
7.12502	7.14084
7.15811	7.14325
7.19033	7.14588
7.22183	7.14881
7.25503	7.15221
7.28909	7.15585
7.32412	7.15914
7.35867	7.16199
7.40713	7.16551
7.45474	7.16845
7.48794	7.17106
7.52175	7.17368
7.5563	7.17607
7.6072	7.17869
7.639	7.18127
7.68661	7.18506
7.72091	7.18795
7.75546	7.19113
7.78951	7.19391
7.84091	7.19676
7.88851	7.19977
7.92111	7.20239
7.95455	7.20469
7.97201	7.20712
8.00631	7.20994
8.04159	7.21228
8.092	7.21494
8.13888	7.21772
8.18746	7.22143
8.22128	7.22382
8.25533	7.22691
8.30831	7.22977
8.34054	7.23223
8.37185	7.23505
8.40383	7.23744
8.43752	7.2402
8.47268	7.24267
8.52517	7.24533
8.5906	7.24795
8.65432	7.25077
8.68789	7.25304
8.72317	7.25554
8.7759	7.25883
8.82485	7.26164
8.87319	7.26407
8.92288	7.26751
8.97488	7.27079
9.02761	7.27373
9.09255	7.27647
9.1415	7.27881
9.19058	7.28174
9.24124	7.28452
9.27456	7.28699
9.32241	7.28984
9.37161	7.29234
9.40457	7.29484
9.4739	7.29758
9.52358	7.30056
9.58816	7.30341
9.62112	7.30611
9.67288	7.30853
9.72402	7.31111
9.78799	7.31338
9.83743	7.31596
9.88809	7.3189
9.93984	7.32179
9.98965	7.32418
10.0386	7.32644
10.0885	7.32918
10.1392	7.33157
10.1906	7.33415
10.24	7.3365
10.2887	7.33939
10.3375	7.34197
10.3893	7.34451
10.4561	7.34698
10.5219	7.34944
10.5714	7.35257
10.6229	7.35538
10.6736	7.35809
10.7569	7.36086
10.808	7.36356
10.8587	7.36626
10.9081	7.36884
10.9921	7.3717
11.0584	7.37474
11.1249	7.37803
11.1737	7.381
11.2252	7.38354
11.2752	7.38585
11.3415	7.38828
11.4073	7.39094
11.474	7.39344
11.5231	7.39645
11.5733	7.39899
11.6225	7.40173
11.6887	7.40408
11.7382	7.4065
11.805	7.40928
11.8712	7.41158
11.9578	7.41444
12.0236	7.4169
12.088	7.41976
12.1377	7.42296
12.1728	7.42535
12.2239	7.42813
12.2738	7.43048
12.355	7.43282
12.4239	7.43537
12.4917	7.43861
12.5559	7.44111
12.6056	7.44362
12.6908	7.44631
12.7722	7.44866
12.838	7.4514
12.8908	7.45367
12.9601	7.45594
13.0246	7.45832
13.0906	7.46082
13.1421	7.46321
13.225	7.46626
13.2906	7.46884
13.3412	7.47115
13.4254	7.47357
13.5055	7.47678
13.5734	7.47964
13.6411	7.48191
13.7221	7.48433
13.7874	7.48761
13.856	7.49043
13.9228	7.49293
13.987	7.4952
14.0556	7.49821
14.1736	7.50076
14.2381	7.50357
14.2893	7.50611
14.3584	7.50858
14.4541	7.51151
14.522	7.51444
14.5911	7.51722
14.6883	7.52008
14.7561	7.52262
14.825	7.52516
14.9543	7.52868
15.0062	7.53204
15.1089	7.53458
15.1894	7.53708
15.2237	7.53936
15.3272	7.5417
15.4405	7.54471
15.4902	7.54741
15.5409	7.54987
15.623	7.55269
15.6886	7.55539
15.7574	7.55832
15.8243	7.56063
15.9049	7.56333
15.9727	7.56649
16.0554	7.56919
16.1711	7.57146
16.2566	7.57373
16.3224	7.57643
16.3725	7.57882
16.4406	7.5812
16.5064	7.58375
16.5716	7.58652
16.6379	7.58883
16.7393	7.59129
16.8064	7.59387
16.8724	7.5963
16.9571	7.59868
17.0398	7.60103
17.1063	7.60373
17.1755	7.60607
17.2911	7.60909
17.3756	7.61194
17.4257	7.61433
17.492	7.61687
17.5746	7.61926
17.6411	7.62195
17.7058	7.62442
17.7736	7.62684
17.857	7.62982
17.9226	7.63216
18.0058	7.63494
18.1058	7.63764
18.1881	7.64002
18.2724	7.6426
18.3557	7.64518
18.4207	7.64792
18.5069	7.65019
18.6224	7.65269
18.7055	7.65531
18.7732	7.65762
18.888	7.66016
18.9561	7.66294
19.0239	7.6654
19.1067	7.6681
19.1737	7.67119
19.2756	7.67362
19.3728	7.67616
19.4241	7.67855
19.5083	7.68089
19.5912	7.68339
19.7095	7.68594
19.7729	7.68851
19.839	7.69106
19.8894	7.69352
20.0059	7.69579
20.0878	7.69829
20.1564	7.70096
20.2395	7.70326
20.3695	7.70569
20.4215	7.70799
20.5032	7.71069
20.5879	7.71343
20.6901	7.71582
20.7545	7.71875
20.8229	7.72148
20.9554	7.72395
21.022	7.72637
21.074	7.7288
21.2045	7.73162
21.2731	7.73447
21.4087	7.7369
21.4889	7.73971
21.5403	7.74249
21.6112	7.74495
21.7064	7.74746
21.7559	7.7505
21.8751	7.75281
21.989	7.75539
22.0571	7.75786
22.1234	7.76013
22.2214	7.76271
22.3041	7.76521
22.3893	7.76763
22.4738	7.77053
22.5557	7.77323
22.6215	7.776
22.6893	7.77882
22.8539	7.78109
22.9048	7.78336
22.9573	7.78625
23.0415	7.7886
23.1385	7.79106
23.1897	7.79352
23.3397	7.79583
23.406	7.79849
23.4585	7.80111
23.6261	7.8035
23.6916	7.80616
23.7582	7.80846
23.8088	7.81105
23.9071	7.81405
24.006	7.81703
24.0413	7.81973
24.2366	7.82223
24.2872	7.82509
24.3208	7.82755
24.3885	7.83005
24.4543	7.83275
24.5388	7.83525
24.6074	7.83772
24.7063	7.84007
24.7894	7.84351
24.8575	7.84667
24.9215	7.84988
25.0062	7.8527
25.1232	7.85496
25.1894	7.85727
25.2753	7.85993
25.4385	7.86243
25.5077	7.86521
25.5908	7.86756
25.6559	7.86986
25.7073	7.87276
25.8102	7.87534
25.907	7.87773
25.9747	7.88011
26.0734	7.88265
26.1562	7.88516
26.2902	7.88754
26.3894	7.89095
26.49	7.89333
26.5709	7.8965
26.6393	7.89896
26.7555	7.90154
26.8394	7.90416
26.9077	7.90663
27.0375	7.90921
27.1049	7.91148
27.2228	7.91378
27.2876	7.91609
27.3393	7.91871
27.4729	7.92133
27.5727	7.92376
27.7242	7.92634
27.79	7.929
27.8414	7.93127
27.927	7.93365
28.0252	7.93608
28.1578	7.93893
28.2226	7.94163
28.2722	7.94433
28.3734	7.94691
28.4887	7.94961
28.6042	7.9525
28.6864	7.95516
28.7545	7.95794
28.8563	7.9604
28.9549	7.96267
29.0232	7.96506
29.1238	7.96744
29.2738	7.97006
29.3564	7.97288
29.4397	7.9753
29.54	7.97769
29.6401	7.98058
29.7407	7.98305
29.8254	7.98539
29.8917	7.98774
29.9918	7.99013
30.1085	7.99318
30.1911	7.99572
30.2733	7.99803
30.3578	8.0003
30.4721	8.00276
30.5543	8.00515
30.6394	8.00761
30.7374	8.00988
30.8238	8.01242
30.9554	8.01523
31.0396	8.01781
31.1397	8.02067
31.2196	8.02317
31.2711	8.02568
31.3573	8.02814
31.4712	8.03076
31.5575	8.03346
31.655	8.03639
31.7568	8.0387
31.8907	8.04124
31.9739	8.04437
32.0765	8.04711
32.1909	8.04977
32.2754	8.05251
32.3896	8.05504
32.4564	8.05767
32.6205	8.06029
32.6706	8.06275
32.7225	8.06568
32.8692	8.06838
32.9391	8.07089
33.0876	8.07327
33.1725	8.0757
33.3056	8.07859
33.3706	8.08125
33.4917	8.08375
33.6051	8.08657
33.6392	8.08903
33.7567	8.09173
33.8905	8.09431
34.04	8.09666
34.1076	8.09904
34.1772	8.10131
34.307	8.10389
34.3569	8.10678
34.4575	8.10937
34.555	8.11176
34.6243	8.11406
34.7871	8.11684
34.8558	8.11915
34.9389	8.12165
35.0382	8.12447
35.1573	8.12681
35.2399	8.12908
35.3239	8.13158
35.4383	8.13448
35.5043	8.13694
35.5895	8.13972
35.756	8.14222
35.8893	8.14492
35.9728	8.14777
36.0923	8.15016
36.1744	8.1529
36.2599	8.15571
36.4089	8.15814
36.4568	8.16072
36.5233	8.16299
36.5901	8.16557
36.7895	8.16881
36.8904	8.17108
37.0375	8.17394
37.1238	8.17695
37.2543	8.17937
37.3396	8.18262
37.5046	8.18536
37.5722	8.18794
37.6229	8.19036
37.7058	8.19283
37.7887	8.1951
37.9398	8.1974
38.0058	8.19998
38.0928	8.20253
38.2229	8.20495
38.3096	8.20746
38.4584	8.21027
38.5251	8.21309
38.625	8.21536
38.7228	8.21793
38.7727	8.22021
38.8722	8.22279
38.9538	8.22564
39.1374	8.22818
39.2054	8.23053
39.2912	8.23315
39.3706	8.23573
39.4386	8.23835
39.6214	8.24089
39.6892	8.24324
39.8385	8.24559
39.9223	8.24817
39.9923	8.25082
40.1216	8.25329
40.1911	8.25564
40.3393	8.25802
40.4245	8.2608
40.5416	8.26307
40.6235	8.266
40.6913	8.26827
40.8226	8.27085
40.9076	8.27312
41.0384	8.27547
41.1042	8.27793
41.2057	8.28043
41.3222	8.28274
41.4722	8.28579
41.5726	8.28869
41.7049	8.29099
41.7541	8.29349
41.8227	8.29588
41.9732	8.2983
42.1077	8.30128
42.1902	8.30359
42.2565	8.30585
42.4582	8.30844
42.5429	8.3116
42.6246	8.31414
42.7408	8.317
42.8393	8.31927
42.9406	8.32208
43.0574	8.32474
43.1716	8.32709
43.2887	8.32948
43.3543	8.3319
43.4388	8.33448
43.556	8.33702
43.6735	8.33933
43.7881	8.3416
43.8728	8.34398
43.9898	8.34633
44.1409	8.34942
44.2565	8.352
44.3395	8.35462
44.4887	8.35716
44.5716	8.3599
44.6248	8.36225
44.7569	8.36491
44.858	8.36733
44.9725	8.36976
45.0395	8.37222
45.1888	8.3748
45.2726	8.37738
45.4539	8.38024
45.5051	8.38266
45.6221	8.38493
45.7219	8.38794
45.8097	8.39025
45.9712	8.39283
46.0582	8.39518
46.1885	8.3976
46.2758	8.40015
46.4393	8.40272
46.5745	8.40546
46.6398	8.40773
46.7073	8.41059
46.9082	8.41313
47.0085	8.41552
47.0887	8.41802
47.1389	8.4204
47.208	8.42271
47.3879	8.42502
47.4737	8.42736
47.5883	8.42963
47.6728	8.43268
47.8226	8.43519
47.9249	8.43761
48.006	8.44
48.1064	8.44273
48.2556	8.44524
48.339	8.44755
48.4553	8.44993
48.5397	8.45282
48.6749	8.45517
48.8251	8.45771
48.9252	8.4601
49.0081	8.46241
49.1563	8.46511
49.2242	8.46788
49.2905	8.47035
49.4888	8.47285
49.638	8.47551
49.7066	8.47785
49.8228	8.48016
49.9562	8.48286
50.0718	8.48532
50.1563	8.48798
50.2897	8.49029
50.3898	8.49287
50.5073	8.49514
50.6235	8.49768
50.7092	8.50019
50.8917	8.50335
50.9759	8.50574
51.1077	8.50809
51.2396	8.51067
51.3394	8.51325
51.472	8.51575
51.5554	8.51853
51.6557	8.52107
51.7889	8.52373
51.9229	8.5267
52.0395	8.52936
52.2383	8.53222
52.29	8.53448
52.4219	8.5371
52.5227	8.53937
52.6399	8.54207
52.7556	8.54457
52.8567	8.54751
52.9908	8.55021
53.1904	8.55283
53.2578	8.55541
53.3896	8.55787
53.4912	8.56014
53.655	8.56268
53.7733	8.56495
53.9043	8.56722
53.9901	8.56968
54.1061	8.57234
54.1903	8.57485
54.3712	8.57762
54.423	8.58024
54.49	8.58263
54.7392	8.58521
54.8575	8.58798
54.9576	8.59025
55.0741	8.59276
55.1593	8.5951
55.3884	8.5978
55.4549	8.60026
55.5399	8.60285
55.7058	8.60515
55.7897	8.6077
55.9044	8.61012
56.0062	8.61259
56.1053	8.6152
56.2239	8.61806
56.4219	8.62037
56.5066	8.62299
56.5727	8.62534
56.6553	8.62795
56.8058	8.6305
56.8721	8.6332
57.0723	8.63546
57.1396	8.63809
57.2422	8.64043
57.358	8.64274
57.4767	8.64509
57.6226	8.64766
57.7554	8.64997
57.8376	8.65295
57.8898	8.65537
58.0389	8.65768
58.2535	8.66053
58.3216	8.66315
58.5207	8.66597
58.5904	8.66859
58.7375	8.67117
58.7888	8.67355
58.9549	8.67587
59.0588	8.67829
59.291	8.6811
59.3434	8.68345
59.4901	8.68592
59.6247	8.68818
59.7911	8.69076
59.9208	8.69315
60.0055	8.69585
60.0886	8.69847
60.2743	8.70097
60.3724	8.70336
60.4391	8.70594
60.6716	8.70848
60.7742	8.71083
60.9224	8.71317
61.0566	8.71552
61.2083	8.71794
61.3586	8.7206
61.4916	8.72287
61.6235	8.72538
61.7067	8.72788
61.8242	8.73054
61.9726	8.73304
62.0724	8.73547
62.1548	8.73848
62.2386	8.74121
62.4551	8.74466
62.6386	8.74708
62.7044	8.74935
62.7902	8.75189
62.9727	8.75467
63.1716	8.75694
63.2927	8.75932
63.4408	8.76159
63.608	8.7639
63.7424	8.76628
63.8726	8.76863
63.9401	8.77102
64.1382	8.77387
64.3207	8.77614
64.3891	8.77868
64.4894	8.78095
64.6054	8.78357
64.7247	8.78623
64.8553	8.78943
64.9734	8.79202
65.1063	8.79468
65.2883	8.79714
65.3582	8.79984
65.5575	8.80258
65.6271	8.80489
65.7907	8.80778
66.0055	8.81044
66.1076	8.81282
66.34	8.81509
66.4719	8.81751
66.5895	8.82021
66.7053	8.82283
66.8069	8.82534
66.9384	8.82823
67.0892	8.83097
67.2056	8.83336
67.2898	8.83562
67.4235	8.83797
67.6413	8.84118
67.7436	8.84345
67.8414	8.84575
67.9751	8.84841
68.1739	8.85072
68.3716	8.8533
68.4556	8.85573
68.6718	8.858
68.7696	8.86077
68.8216	8.8632
68.9531	8.86546
69.0398	8.86777
69.2395	8.8702
69.4556	8.8725
69.5072	8.87477
69.7417	8.8772
69.8582	8.87985
69.9746	8.88256
70.1389	8.88494
70.3547	8.88741
70.4376	8.89053
70.6376	8.89327
70.6898	8.89554
70.923	8.89792
71.0075	8.90051
71.121	8.90355
71.2078	8.90582
71.3737	8.90833
71.6237	8.91083
71.7732	8.9131
71.8766	8.91548
72.1416	8.91842
72.2723	8.92092
72.6054	8.92327
72.7036	8.92557
72.7712	8.92839
72.9232	8.93105
73.041	8.9341
73.1561	8.93672
73.255	8.93922
73.3558	8.94184
73.4557	8.94458
73.6243	8.94689
73.775	8.94951
73.908	8.95221
74.1582	8.9551
74.29	8.95792
74.4067	8.96019
74.5722	8.96296
74.6394	8.9657
74.8396	8.96805
75.3229	8.97063
75.4559	8.97301
75.5386	8.97548
75.6408	8.9779
75.7736	8.98037
75.8419	8.98295
76.0232	8.98537
76.0928	8.9878
76.2919	8.99014
76.391	8.99245
76.5747	8.99476
76.7212	8.9973
76.9876	9.00023
77.1364	9.0032
77.3868	9.0059
77.4567	9.00853
77.6728	9.01138
77.7588	9.01365
77.9412	9.0167
78.1062	9.01963
78.1573	9.02272
78.2439	9.02503
78.3731	9.02773
78.4908	9.03015
78.6746	9.03265
78.9382	9.03551
79.1899	9.03797
79.3225	9.0406
79.5543	9.04333
79.6385	9.04572
79.8733	9.04834
80.0401	9.05065
80.2083	9.05299
80.4249	9.05526
80.5402	9.05761
80.6905	9.06007
80.8897	9.0625
80.9715	9.06519
81.0376	9.0677
81.223	9.07028
81.2874	9.07293
81.3565	9.07532
81.6742	9.07783
81.788	9.08052
82.0737	9.08303
82.2069	9.08534
82.3245	9.08768
82.4101	9.08995
82.5579	9.09238
82.7052	9.09472
82.8247	9.09757
83.0048	9.1002
83.0911	9.10266
83.2555	9.10524
83.4727	9.10794
83.739	9.11103
84.0894	9.11353
84.3894	9.11654
84.4585	9.11897
84.6072	9.12128
84.674	9.12382
84.7907	9.1262
84.9059	9.12855
85.339	9.13086
85.4907	9.13324
85.6228	9.13625
85.8214	9.13888
85.9402	9.1413
86.0559	9.14372
86.2062	9.14619
86.4081	9.14881
86.5084	9.15115
86.7747	9.15362
86.9065	9.15639
87.155	9.15874
87.2382	9.1614
87.4227	9.16375
87.639	9.16637
87.8715	9.16907
