"Nominal strain Torsion"	"Standard torque absolute Torsion"
"°"	"Nm"
-3.72783e-007	5.55687
-7.45566e-007	5.55914
-3.73037e-007	5.56311
0.000510796	5.57052
0.00178491	5.58096
0.00485192	5.5942
0.0120236	5.61129
0.0219723	5.63339
0.0327145	5.65902
0.044006	5.69003
0.0565182	5.72494
0.0711056	5.76327
0.0864864	5.8038
0.102356	5.84628
0.118957	5.89047
0.135559	5.93539
0.152282	5.98153
0.168884	6.02719
0.184997	6.07357
0.20111	6.11947
0.21698	6.1661
0.233093	6.21273
0.249206	6.2601
0.265564	6.30648
0.28302	6.35336
0.300476	6.40121
0.318054	6.44857
0.334777	6.49594
0.351623	6.54379
0.368713	6.59091
0.385437	6.63778
0.402282	6.68417
0.418884	6.72958
0.434753	6.77548
0.450622	6.82113
0.466491	6.86654
0.48236	6.91244
0.49884	6.95834
0.516174	7.00424
0.533874	7.05111
0.55072	7.09823
0.567932	7.14584
0.585266	7.19394
0.602722	7.24154
0.619568	7.28891
0.636779	7.33603
0.653381	7.38241
0.669983	7.4288
0.686462	7.47494
0.702575	7.52084
0.7182	7.56723
0.734314	7.61313
0.750915	7.65927
0.768371	7.70565
0.785705	7.75229
0.802673	7.79867
0.819763	7.84555
0.836364	7.89242
0.852478	7.93881
0.868957	7.98446
0.884826	8.03012
0.900451	8.07577
0.91632	8.12045
0.932678	8.16562
0.949035	8.21103
0.965149	8.25668
0.981506	8.30258
0.998474	8.34799
1.01581	8.39438
1.03351	8.44101
1.05084	8.48764
1.06805	8.53378
1.08441	8.58065
1.10028	8.6268
1.11615	8.6727
1.13202	8.71786
1.14838	8.76327
1.16449	8.80893
1.18072	8.85458
1.19708	8.90023
1.21368	8.94638
1.23053	8.99252
1.24774	9.03891
1.26544	9.08578
1.28302	9.13192
1.30048	9.1788
1.31732	9.22494
1.33405	9.27133
1.3504	9.31723
1.36676	9.36288
1.38287	9.40805
1.39899	9.45346
1.41534	9.49813
1.43207	9.54306
1.44842	9.58822
1.46503	9.63363
1.48114	9.67904
1.4986	9.72421
1.51593	9.76938
1.5329	9.81454
1.5495	9.85995
1.56586	9.90487
1.58173	9.95004
1.59808	9.99521
1.61456	10.0404
1.63092	10.0855
1.64752	10.1307
1.66388	10.1761
1.68085	10.2223
1.69745	10.2686
1.71429	10.315
1.73175	10.3614
1.74969	10.4076
1.76764	10.4535
1.78497	10.4991
1.80109	10.5448
1.81696	10.5902
1.83258	10.6353
1.84869	10.6805
1.86505	10.7252
1.88153	10.7694
1.89813	10.8145
1.91473	10.8602
1.93134	10.9056
1.94781	10.9513
1.96466	10.9967
1.98285	11.0423
2.00055	11.0875
2.01764	11.1322
2.03375	11.1768
2.04962	11.222
2.06573	11.2667
2.08185	11.3114
2.09833	11.3563
2.11444	11.401
2.13104	11.4464
2.14813	11.4918
2.16559	11.5379
2.18243	11.5843
2.19916	11.6309
2.21649	11.6771
2.23419	11.723
2.25165	11.7684
2.268	11.8141
2.28339	11.859
2.2995	11.9041
2.31561	11.9493
2.33173	11.9942
2.34833	12.0389
2.36578	12.0831
2.38287	12.1283
2.40008	12.1742
2.41693	12.2198
2.4339	12.2655
2.45099	12.3109
2.46893	12.3558
2.48651	12.4002
2.50299	12.4444
2.5191	12.4889
2.53448	12.533
2.5506	12.577
2.56671	12.6204
2.58331	12.6644
2.59967	12.7081
2.61664	12.7525
2.63373	12.7977
2.6507	12.8429
2.66705	12.8878
2.68414	12.9329
2.70209	12.9774
2.71979	13.0221
2.73688	13.0665
2.75299	13.1107
2.76886	13.1549
2.78497	13.1991
2.80109	13.2428
2.81757	13.287
2.83368	13.3309
2.85004	13.3753
2.86688	13.4203
2.88385	13.4649
2.90045	13.5099
2.9173	13.5545
2.93451	13.599
2.95184	13.6434
2.96881	13.6876
2.98492	13.731
3.00079	13.775
3.01666	13.8184
3.03278	13.8624
3.04938	13.9056
3.06586	13.9493
3.08197	13.993
3.09882	14.0377
3.11566	14.0821
3.13263	14.127
3.14947	14.172
3.16693	14.2166
3.18402	14.2608
3.20074	14.305
3.2171	14.349
3.23248	14.3934
3.24835	14.4376
3.26471	14.4813
3.28131	14.5247
3.29767	14.568
3.31439	14.6119
3.33075	14.6558
3.34735	14.7003
3.3642	14.7445
3.38165	14.7887
3.3985	14.8324
3.41522	14.8766
3.43182	14.9203
3.44842	14.964
3.46478	15.0079
3.48151	15.0514
3.49811	15.0948
3.51471	15.138
3.53143	15.1815
3.54828	15.2249
3.56537	15.2686
3.58209	15.3119
3.59894	15.3551
3.61615	15.3985
3.63324	15.4415
3.65021	15.4842
3.66681	15.5272
3.68243	15.5704
3.69879	15.6129
3.71539	15.6561
3.73199	15.6993
3.74847	15.7423
3.76508	15.7855
3.78192	15.8292
3.79889	15.8729
3.81573	15.9168
3.8327	15.96
3.85004	16.0033
3.86774	16.0472
3.88434	16.0909
3.90021	16.1339
3.91632	16.1766
3.93268	16.2198
3.94916	16.2625
3.96504	16.305
3.98115	16.3477
3.99775	16.3911
4.01411	16.4343
4.03096	16.478
4.04768	16.5213
4.06477	16.5647
4.08247	16.6084
4.09993	16.6516
4.11677	16.6946
4.13362	16.7378
4.14973	16.781
4.1656	16.8242
4.18171	16.867
4.19819	16.9097
4.21479	16.9529
4.23139	16.9956
4.24836	17.0386
4.26521	17.0821
4.28242	17.1258
4.29902	17.1687
4.31587	17.2114
4.33308	17.2542
4.34968	17.2971
4.36579	17.3391
4.38215	17.3811
4.39802	17.4239
4.41438	17.4666
4.43086	17.5088
4.44722	17.5515
4.46406	17.5945
4.48127	17.6377
4.49836	17.6812
4.51582	17.7246
4.53266	17.7686
4.55012	17.8125
4.5677	17.8557
4.58515	17.8989
4.60237	17.9419
4.61921	17.9851
4.63581	18.0279
4.65254	18.0706
4.66914	18.1131
4.68574	18.1553
4.70234	18.1975
4.71882	18.2395
4.73493	18.282
4.75105	18.3242
4.76789	18.3667
4.78486	18.4082
4.80171	18.4507
4.8188	18.4927
4.83552	18.5347
4.85237	18.5764
4.86872	18.6187
4.88569	18.6609
4.90229	18.7034
4.91889	18.7451
4.93525	18.7876
4.95173	18.8299
4.96833	18.8716
4.98493	18.9138
5.00105	18.9556
5.01716	18.9978
5.03389	19.0396
5.05049	19.0816
5.06636	19.1231
5.08271	19.1651
5.09907	19.2068
5.11604	19.249
5.13337	19.2905
5.15058	19.3325
5.16719	19.3748
5.18415	19.4168
5.20051	19.459
5.21687	19.5008
5.23396	19.5425
5.25117	19.5835
5.26802	19.6243
5.2845	19.6655
5.30036	19.7071
5.31648	19.7481
5.33235	19.7893
5.34846	19.8308
5.36482	19.8716
5.38191	19.9126
5.39888	19.9536
5.41548	19.9956
5.43183	20.0376
5.44819	20.0791
5.46467	20.1201
5.48127	20.1612
5.49787	20.2019
5.5146	20.2422
5.53096	20.2837
5.54731	20.3252
5.56343	20.3667
5.57978	20.4082
5.597	20.4495
5.61457	20.4915
5.63203	20.5342
5.64949	20.5767
5.66633	20.6189
5.68293	20.6609
5.70014	20.7024
5.71723	20.7434
5.73396	20.7842
5.75007	20.8247
5.76594	20.8655
5.78181	20.9058
5.79817	20.9456
5.81428	20.9859
5.83088	21.0261
5.84809	21.0664
5.86543	21.1067
5.88288	21.1477
5.89973	21.1892
5.9167	21.2305
5.93305	21.271
5.95014	21.3115
5.9676	21.3518
5.9842	21.3916
6.00007	21.4312
6.01594	21.4717
6.03157	21.512
6.04768	21.5518
6.06404	21.5913
6.08076	21.6314
6.09785	21.6719
6.11482	21.7127
6.13166	21.7534
6.14851	21.7942
6.16548	21.8352
6.18257	21.8755
6.19978	21.9155
6.21662	21.9553
6.23323	21.9956
6.24934	22.0354
6.26521	22.075
6.28169	22.1145
6.29805	22.1543
6.3144	22.1941
6.33186	22.2339
6.34944	22.2742
6.36714	22.3147
6.38423	22.3552
6.40095	22.3953
6.4178	22.4351
6.43501	22.4749
6.45161	22.5142
6.46748	22.5528
6.48286	22.5911
6.49873	22.6299
6.51484	22.6685
6.53144	22.7075
6.54805	22.7461
6.56501	22.7857
6.58271	22.8255
6.60029	22.8653
6.61799	22.9051
6.63508	22.9451
6.65229	22.9846
6.66938	23.0239
6.68611	23.062
6.70198	23.1004
6.71809	23.1389
6.73371	23.1765
6.75007	23.2144
6.76643	23.252
6.78303	23.2901
6.80024	23.3281
6.81733	23.3665
6.83503	23.4051
6.85188	23.4444
6.86885	23.4827
6.88594	23.5208
6.90266	23.5586
6.91975	23.5965
6.93586	23.6336
6.95173	23.6702
6.96711	23.7071
6.98323	23.7434
6.99934	23.7801
7.01594	23.8162
7.03266	23.8533
7.04927	23.8904
7.06636	23.9278
7.08381	23.9649
7.10066	24.0022
7.11763	24.0396
7.13423	24.0767
7.15034	24.114
7.16706	24.1516
7.18318	24.1887
7.19905	24.2256
7.21492	24.2627
7.23127	24.2996
7.24812	24.3374
7.26509	24.375
7.28218	24.4131
7.29939	24.4517
7.31697	24.4903
7.33467	24.5279
7.35212	24.5659
7.36897	24.6033
7.38508	24.6402
7.40095	24.677
7.41682	24.7134
7.43269	24.7503
7.44856	24.7864
7.46467	24.8225
7.48152	24.8587
7.49848	24.8958
7.51533	24.9331
7.5323	24.9705
7.54963	25.0069
7.56709	25.0437
7.58418	25.0808
7.60066	25.117
7.61653	25.1531
7.6324	25.1887
7.64851	25.2246
7.66438	25.2603
7.68049	25.2962
7.69709	25.3323
7.71394	25.3689
7.73115	25.4051
7.74885	25.4417
7.7657	25.4788
7.78205	25.5156
7.79927	25.5525
7.8166	25.5886
7.83357	25.625
7.84993	25.6604
7.86555	25.6961
7.88166	25.7317
7.89778	25.7674
7.91413	25.8032
7.93025	25.8389
7.94722	25.8748
7.96455	25.9114
7.98176	25.9485
7.99909	25.9854
8.01655	26.0222
8.03389	26.0584
8.05159	26.095
8.06904	26.1316
8.0854	26.1675
8.10127	26.2024
8.11665	26.2378
8.13227	26.273
8.14814	26.3079
8.16426	26.3428
8.18061	26.3784
8.19722	26.4151
8.21418	26.4514
8.23078	26.4881
8.24787	26.5254
8.26533	26.5628
8.28352	26.5991
8.3011	26.6355
8.31782	26.6717
8.33393	26.7078
8.34931	26.7434
8.36543	26.7786
8.3813	26.8142
8.39741	26.8499
8.41377	26.8855
8.43061	26.9221
8.44783	26.9597
8.46601	26.9973
8.48286	27.0352
8.50032	27.0728
8.51826	27.1099
8.53559	27.1468
8.55256	27.1829
8.56843	27.2183
8.58375	27.2534
8.59938	27.2881
8.61549	27.3223
8.63136	27.3567
8.64747	27.3911
8.66432	27.426
8.68104	27.4619
8.69837	27.4978
8.71559	27.5342
8.73316	27.5711
8.75135	27.6074
8.76881	27.6433
8.78614	27.679
8.80262	27.7149
8.81819	27.7503
8.83406	27.7854
8.85041	27.8203
8.86677	27.8548
8.88325	27.8897
8.89985	27.9246
8.91621	27.9602
8.93367	27.9964
8.951	28.0327
8.96797	28.0686
8.9853	28.1048
9.003	28.1406
9.02034	28.1763
9.0373	28.2119
9.05366	28.2471
9.06953	28.2825
9.08564	28.3172
9.102	28.3516
9.11872	28.3858
9.13508	28.4204
9.15144	28.4546
9.1678	28.4893
9.18415	28.5239
9.20112	28.5584
9.21772	28.5928
9.23457	28.6267
9.25154	28.6609
9.26789	28.6953
9.28425	28.7295
9.30036	28.7642
9.31599	28.7986
9.33235	28.833
9.34858	28.8677
9.3647	28.9024
9.38154	28.9378
9.39814	28.9734
9.41535	29.0095
9.43244	29.0452
9.44966	29.0808
9.46699	29.1157
9.4842	29.1507
9.50105	29.1856
9.51716	29.2197
9.53303	29.2547
9.5489	29.2891
9.56501	29.3233
9.58174	29.3572
9.59809	29.3919
9.6147	29.4268
9.63105	29.4617
9.64802	29.4968
9.66535	29.5327
9.68305	29.5679
9.70027	29.6026
9.71711	29.6365
9.73371	29.6709
9.75007	29.7053
9.76631	29.739
9.78218	29.7725
9.79829	29.8062
9.81465	29.8396
9.83125	29.8733
9.84822	29.907
9.86482	29.9414
9.88142	29.9766
9.89863	30.011
9.91572	30.0454
9.93293	30.0796
9.94978	30.114
9.96662	30.1485
9.9831	30.1824
9.99971	30.2163
10.0158	30.25
10.0319	30.2835
10.048	30.3167
10.0644	30.3509
10.0816	30.385
10.0982	30.4199
10.1148	30.4546
10.1323	30.4895
10.15	30.5247
10.1671	30.5596
10.184	30.5943
10.2006	30.6284
10.2167	30.6629
10.2333	30.6968
10.2497	30.7305
10.2659	30.7642
10.2815	30.7974
10.2976	30.8311
10.3145	30.8648
10.3309	30.8989
10.3475	30.9339
10.3644	30.9685
10.3818	31.0027
10.3995	31.0376
10.4164	31.0723
10.4327	31.1072
10.4489	31.1424
10.4658	31.177
10.4832	31.2117
10.4995	31.2456
10.5158	31.2791
10.5321	31.314
10.5485	31.3494
10.5653	31.3838
10.5823	31.4185
10.5989	31.4529
10.6163	31.4878
10.6334	31.5227
10.6503	31.5572
10.667	31.5921
10.6836	31.6265
10.7002	31.6604
10.7166	31.6944
10.7335	31.7288
10.7501	31.763
10.7667	31.7971
10.7837	31.8308
10.801	31.8653
10.818	31.8994
10.8351	31.9336
10.8523	31.9678
10.8689	32.0015
10.8855	32.0357
10.9022	32.0691
10.9181	32.1021
10.9349	32.1353
10.9518	32.1687
10.9685	32.2017
10.9849	32.2349
11.0015	32.2683
11.0182	32.302
11.0348	32.3357
11.0516	32.3692
11.0684	32.4031
11.0852	32.4373
11.1021	32.4712
11.1182	32.5051
11.1347	32.5393
11.151	32.5735
11.1676	32.6074
11.1842	32.6411
11.2014	32.6751
11.2185	32.709
11.2352	32.7425
11.2518	32.7769
11.2677	32.8103
11.2841	32.8447
11.3007	32.8792
11.3176	32.9131
11.3342	32.9466
11.3506	32.981
11.367	33.0149
11.3834	33.0489
11.3998	33.0833
11.4164	33.1172
11.4336	33.1514
11.4507	33.1846
11.4673	33.2185
11.4838	33.2522
11.5001	33.2866
11.5165	33.3211
11.5333	33.356
11.5501	33.3906
11.5667	33.4248
11.5833	33.4588
11.5996	33.4934
11.6159	33.5279
11.6325	33.562
11.6486	33.596
11.6647	33.6292
11.6813	33.6624
11.6985	33.6958
11.7151	33.7295
11.7312	33.7632
11.7473	33.7971
11.7645	33.8308
11.7814	33.8648
11.7984	33.8985
11.815	33.9329
11.8316	33.9676
11.8482	34.0017
11.8649	34.0357
11.8817	34.0696
11.8989	34.1033
11.9165	34.137
11.934	34.1707
11.9513	34.2046
11.9675	34.2381
11.9839	34.271
12.0007	34.3037
12.0169	34.3362
12.0332	34.3689
12.0491	34.4014
12.065	34.4336
12.0812	34.4661
12.0975	34.4993
12.1139	34.5325
12.1305	34.5659
12.1475	34.5996
12.165	34.6333
12.183	34.6673
12.2004	34.7012
12.2171	34.7346
12.2337	34.7686
12.2504	34.802
12.267	34.835
12.2828	34.8675
12.2985	34.8999
12.3146	34.9335
12.331	34.9664
12.3473	34.9999
12.3642	35.0333
12.3814	35.067
12.3985	35.101
12.4164	35.1354
12.4333	35.1701
12.4502	35.204
12.4673	35.2377
12.4848	35.2706
12.5012	35.3041
12.5173	35.3373
12.5334	35.3703
12.5492	35.403
12.5662	35.4354
12.5826	35.4684
12.5992	35.5016
12.6161	35.535
12.6332	35.5685
12.6507	35.6022
12.6675	35.6356
12.6844	35.6684
12.7011	35.7008
12.7177	35.7335
12.7343	35.7667
12.7504	35.7987
12.7659	35.8307
12.7815	35.8629
12.7978	35.8954
12.8142	35.9279
12.831	35.9608
12.848	35.9945
12.8651	36.0289
12.8833	36.0629
12.9012	36.0963
12.9192	36.13
12.9365	36.1632
12.9532	36.1959
12.9698	36.2284
12.986	36.2609
13.0016	36.2926
13.0174	36.3244
13.0336	36.3556
13.0499	36.3873
13.0665	36.4193
13.0835	36.4513
13.1003	36.4835
13.1175	36.5165
13.1346	36.5492
13.1521	36.5814
13.1689	36.6137
13.1861	36.6454
13.2027	36.6774
13.2189	36.7091
13.2347	36.7406
13.2506	36.7724
13.267	36.8038
13.2839	36.8349
13.301	36.8663
13.3179	36.8986
13.3346	36.9313
13.3514	36.964
13.368	36.996
13.3852	37.0282
13.4021	37.0604
13.4186	37.0922
13.4349	37.1239
13.451	37.1561
13.4672	37.1881
13.483	37.2201
13.4991	37.2512
13.5157	37.2835
13.5327	37.3159
13.5498	37.3486
13.567	37.3814
13.5841	37.4141
13.6007	37.4463
13.6177	37.479
13.6345	37.511
13.6517	37.5425
13.6683	37.574
13.6842	37.6052
13.7001	37.6364
13.7154	37.667
13.7313	37.6983
13.7469	37.7298
13.7638	37.7612
13.7804	37.793
13.7974	37.825
13.8142	37.8574
13.8314	37.8897
13.8487	37.9219
13.866	37.9536
13.8828	37.9856
13.8994	38.0169
13.9159	38.0479
13.9318	38.0794
13.9479	38.1106
13.964	38.1421
13.9803	38.1736
13.9972	38.2051
14.0144	38.2366
14.0317	38.2683
14.0492	38.3003
14.066	38.3328
14.0832	38.365
14.1006	38.3967
14.1178	38.4275
14.1346	38.4583
14.1507	38.4888
14.1664	38.5197
14.1822	38.5504
14.1981	38.5814
14.2146	38.6122
14.2309	38.6422
14.248	38.6734
14.2657	38.7044
14.2828	38.7366
14.2996	38.7683
14.3166	38.8003
14.3341	38.8318
14.3517	38.8631
14.3686	38.8934
14.3845	38.9241
14.4001	38.9556
14.4163	38.9865
14.4324	39.0174
14.4477	39.0476
14.4641	39.0785
14.4807	39.1093
14.4979	39.1405
14.5152	39.1725
14.5322	39.205
14.5488	39.2372
14.5659	39.2687
14.5831	39.2999
14.6006	39.3314
14.6172	39.3627
14.6333	39.3937
14.6492	39.4246
14.6653	39.4556
14.6816	39.4865
14.698	39.5174
14.7147	39.5486
14.7318	39.5803
14.749	39.6126
14.7661	39.6443
14.7833	39.6763
14.8006	39.7085
14.8183	39.7405
14.8358	39.7722
14.8519	39.8034
14.8675	39.8338
14.8834	39.8643
14.8987	39.895
14.9148	39.9257
14.931	39.9568
14.9476	39.9881
14.9645	40.0192
14.9821	40.0504
14.9998	40.0822
15.017	40.1142
15.0344	40.1464
15.0521	40.1776
15.0696	40.2085
15.0864	40.239
15.1022	40.2686
15.1181	40.2984
15.134	40.3283
15.1501	40.3584
15.1664	40.3881
15.183	40.4177
15.2002	40.4481
15.2173	40.4789
15.2345	40.5099
15.2519	40.5412
15.2689	40.5726
15.2864	40.6039
15.3036	40.6347
15.3202	40.6652
15.3366	40.6951
15.3528	40.7254
15.3689	40.7549
15.3851	40.7843
15.4014	40.8139
15.4178	40.8432
15.4341	40.8731
15.4509	40.9027
15.4672	40.9326
15.4841	40.9624
15.5008	40.9931
15.5176	41.0232
15.534	41.0535
15.5506	41.0834
15.5671	41.1129
15.5832	41.1426
15.5993	41.1721
15.6154	41.202
15.632	41.2324
15.6486	41.2628
15.6653	41.2932
15.6822	41.3237
15.6991	41.354
15.7162	41.3851
15.7337	41.4164
15.7508	41.4472
15.768	41.4776
15.7846	41.5076
15.8012	41.537
15.8176	41.5664
15.8334	41.5956
15.8495	41.6243
15.8658	41.6536
15.8819	41.6826
15.898	41.7117
15.9144	41.741
15.9312	41.7704
15.9482	41.7998
15.9655	41.8295
15.9825	41.8591
15.9991	41.8883
16.0152	41.9185
16.0315	41.9479
16.0479	41.9774
16.0644	42.0066
16.0812	42.0359
16.0978	42.0652
16.1143	42.0945
16.1312	42.124
16.1478	42.1541
16.1645	42.1842
16.1816	42.214
16.1987	42.244
16.2161	42.2735
16.233	42.303
16.2494	42.3324
16.266	42.3617
16.2824	42.3911
16.299	42.4201
16.3157	42.4486
16.3321	42.4771
16.3487	42.506
16.3654	42.5352
16.382	42.5642
16.3989	42.5935
16.4161	42.6225
16.4334	42.6515
16.4506	42.6807
16.4672	42.7094
16.4836	42.7378
16.4997	42.7665
16.5162	42.7946
16.5325	42.8229
16.5489	42.8515
16.5647	42.8801
16.5809	42.9087
16.5975	42.9379
16.6144	42.9672
16.6313	42.997
16.6485	43.0266
16.6656	43.056
16.683	43.0856
16.7001	43.1148
16.7165	43.1441
16.733	43.1735
16.7493	43.2033
16.7659	43.2321
16.7825	43.2608
16.7992	43.2894
16.8158	43.3183
16.8324	43.3474
16.8491	43.3768
16.8658	43.4059
16.8821	43.4347
16.8992	43.4625
16.9167	43.4907
16.9339	43.5191
16.9502	43.5475
16.9664	43.5756
16.9825	43.6041
16.9991	43.6326
17.016	43.6604
17.0329	43.6885
17.0495	43.7171
17.0662	43.7456
17.0826	43.7746
17.0992	43.8035
17.1158	43.8322
17.133	43.8606
17.1498	43.8883
17.167	43.9163
17.1839	43.9444
17.2	43.9724
17.2164	44.0001
17.2331	44.0283
17.2494	44.0562
17.2663	44.0844
17.283	44.1122
17.2999	44.1404
17.3167	44.1694
17.3337	44.1978
17.351	44.2263
17.368	44.2543
17.3848	44.2824
17.402	44.3108
17.4186	44.3391
17.435	44.3668
17.4513	44.3949
17.4686	44.4225
17.4856	44.4497
17.5026	44.4771
17.5192	44.5048
17.5353	44.5326
17.5517	44.5604
17.568	44.5879
17.5845	44.615
17.6006	44.6417
17.617	44.668
17.6334	44.6953
17.6497	44.723
17.6661	44.7514
17.6819	44.7796
17.6989	44.8075
17.7162	44.8352
17.7339	44.8627
17.7514	44.8909
17.7682	44.9196
17.7841	44.9489
17.8002	44.9776
17.8172	45.0055
17.8338	45.0325
17.8506	45.0595
17.8674	45.0866
17.8835	45.114
17.8996	45.1416
17.9159	45.1688
17.9323	45.1961
17.9487	45.2229
17.9654	45.2497
17.9822	45.2766
17.9988	45.3042
18.0153	45.3314
18.0317	45.3593
18.0485	45.3866
18.0651	45.414
18.0816	45.4409
18.0982	45.4683
18.1148	45.4954
18.1314	45.5226
18.1479	45.5504
18.1642	45.5779
18.1811	45.6056
18.198	45.6326
18.2151	45.66
18.2324	45.6879
18.2492	45.716
18.2658	45.7435
18.2828	45.7708
18.2999	45.7977
18.3165	45.8241
18.3327	45.8504
18.3488	45.8761
18.3649	45.9028
18.381	45.9297
18.3971	45.9566
18.4135	45.9833
18.4305	46.0104
18.4483	46.0376
18.4662	46.0657
18.4839	46.0933
18.5008	46.121
18.5174	46.1492
18.5346	46.1773
18.5517	46.2042
18.5676	46.2306
18.5834	46.257
18.5999	46.2836
18.6158	46.3103
18.6316	46.3364
18.6478	46.3634
18.6641	46.3905
18.681	46.4174
18.6984	46.444
18.7161	46.4711
18.7327	46.4984
18.7496	46.5255
18.7665	46.5523
18.7834	46.5791
18.8	46.6062
18.8161	46.6323
18.8323	46.6585
18.8487	46.6847
18.8653	46.7112
18.8812	46.7379
18.8975	46.7644
18.9147	46.7916
18.9318	46.8189
18.949	46.8458
18.9661	46.8726
18.9825	46.8998
18.9994	46.9267
19.0165	46.9535
19.0335	46.9799
19.0499	47.0061
19.0657	47.0326
19.0821	47.0587
19.0987	47.0847
19.1154	47.1111
19.1325	47.1378
19.1497	47.1647
19.167	47.1914
19.1845	47.218
19.2016	47.2448
19.219	47.2713
19.2359	47.2971
19.2529	47.3226
19.2695	47.348
19.2858	47.3734
19.3014	47.3983
19.3173	47.4231
19.3334	47.448
19.3495	47.4732
19.3659	47.4987
19.3829	47.5242
19.4	47.5504
19.4174	47.5767
19.4347	47.6029
19.4517	47.6288
19.4686	47.6547
19.4855	47.6806
19.5019	47.7064
19.518	47.7322
19.5344	47.7576
19.5505	47.7832
